Thorlabs Shack-Hartmann Wavefront Sensor

Model                  ,       WFS20-5C
Serial Number          ,       M00578372

Date MM-DD-YYYY        ,       07-16-2024
Time HH:MM:SS          ,       16:19:49


*** CAMERA ***
Camera Type            ,       Thorlabs WFS20
Camera SN              ,       742
Resolution X           ,       1440
Resolution Y           ,       1080
Exposure Time [ms]     ,       0.030
Master Gain            ,       1.000
Averages               ,       1
Average Type           ,       Normal


*** BEAM ***
Beam Center X [mm]     ,      -0.979
Beam Center Y [mm]     ,      -0.865
Beam Diameter X [mm]   ,       6.804
Beam Diameter Y [mm]   ,       5.213


*** PUPIL ***
Circular               ,       1
Use Beam Centroid      ,       0
Use Beam Dia           ,       0
Wavefront Calc In Pupil,       0
Pupil Diameter X [mm]  ,       5.304
Pupil Diameter Y [mm]  ,       5.304
Pupil Center X [mm]    ,       0.000
Pupil Center Y [mm]    ,       0.000


*** ZERNIKE FIT ***
Zernike Orders Auto    ,       0
Zernike Orders         ,       4
Zernike Modes          ,       15
Unit                   ,       µm
Index  Order  Frequency  Coefficient
   1,     0,     0,       -6.320
   2,     1,    -1,        1.406
   3,     1,     1,        6.378
   4,     2,    -2,       -1.039
   5,     2,     0,        0.625
   6,     2,     2,       -0.390
   7,     3,    -3,       -0.097
   8,     3,    -1,       -0.494
   9,     3,     1,        0.277
  10,     3,     3,       -0.224
  11,     4,    -4,        0.003
  12,     4,    -2,       -0.101
  13,     4,     0,        0.126
  14,     4,     2,       -0.070
  15,     4,     4,       -0.079

Fit Error Mean [arcmin]  ,   3.564e-11
Fit Error StdDev [arcmin],   1.422e-03


*** RMS WAVEFRONT VARIATIONS ***
Unit                   ,       µm
Order  Variation
   0,      6.320
   1,      6.531
   2,      1.274
   3,      0.617
   4,      0.193


*** FOURIER NOTATION ***
Fourier Order          ,       2
Fourier M              ,      -0.616
Fourier J0             ,       0.272
Fourier J45            ,       0.724


*** OPTOMETRIC NOTATION ***
Optometric Sphere [dpt],       0.157
Optometric Cyl. [dpt]  ,      -1.546
Optometric Axis [deg]  ,      34.719

Radius of Curvature[mm],    -1623.262


*** WAVEFRONT ***
Reference              ,       Internal Reference
Unit                   ,       µm
Wavelength [nm]        ,        633.000
Type                   ,       Measured
Calculation Area       ,       entire area
PV                     ,      38.673
RMS                    ,       9.740
RMS weighted           ,       7.851
Spots X                ,       47
Spots Y                ,       35
y / x [mm],    -3.450,    -3.300,    -3.150,    -3.000,    -2.850,    -2.700,    -2.550,    -2.400,    -2.250,    -2.100,    -1.950,    -1.800,    -1.650,    -1.500,    -1.350,    -1.200,    -1.050,    -0.900,    -0.750,    -0.600,    -0.450,    -0.300,    -0.150,     0.000,     0.150,     0.300,     0.450,     0.600,     0.750,     0.900,     1.050,     1.200,     1.350,     1.500,     1.650,     1.800,     1.950,     2.100,     2.250,     2.400,     2.550,     2.700,     2.850,     3.000,     3.150,     3.300,     3.450,
     2.550,   -17.504,   -16.947,   -16.339,   -15.725,   -15.090,   -14.446,   -13.789,   -13.104,   -12.420,   -11.707,   -10.965,   -10.217,    -9.443,    -8.671,    -7.855,    -7.029,    -6.157,    -5.247,    -4.309,    -3.316,    -2.262,    -1.177,     0.042,     1.385,     2.677,     4.062,     5.529,     7.031,     8.608,    10.132,    11.520,    12.847,    14.084,    15.075,    16.150,    17.231,    18.171,    18.986,    19.587,    20.057,    20.387,       NaN,       NaN,       NaN,       NaN,       NaN,       NaN,
     2.400,   -17.863,   -17.267,   -16.648,   -16.027,   -15.363,   -14.702,   -14.048,   -13.364,   -12.688,   -12.001,   -11.268,   -10.530,    -9.773,    -9.012,    -8.240,    -7.430,    -6.595,    -5.731,    -4.833,    -3.899,    -2.928,    -1.929,    -0.883,     0.229,     1.345,     2.623,     4.047,     5.587,     7.286,     8.834,    10.298,    11.792,    13.158,    14.361,    15.657,    16.826,    17.791,    18.617,    19.186,    19.602,    19.803,       NaN,       NaN,       NaN,       NaN,       NaN,       NaN,
     2.250,   -18.097,   -17.473,   -16.842,   -16.206,   -15.546,   -14.881,   -14.217,   -13.535,   -12.847,   -12.158,   -11.443,   -10.730,    -9.983,    -9.238,    -8.484,    -7.695,    -6.891,    -6.054,    -5.190,    -4.303,    -3.382,    -2.434,    -1.463,    -0.430,     0.601,     1.690,     2.854,     4.129,     5.592,     7.073,     8.726,    10.374,    11.824,    13.211,    14.597,    15.881,    16.925,    17.743,    18.162,    18.413,    18.472,       NaN,       NaN,       NaN,       NaN,       NaN,       NaN,
     2.100,   -18.231,   -17.587,   -16.947,   -16.302,   -15.641,   -14.970,   -14.303,   -13.619,   -12.930,   -12.238,   -11.529,   -10.827,   -10.100,    -9.371,    -8.623,    -7.850,    -7.071,    -6.263,    -5.429,    -4.577,    -3.710,    -2.807,    -1.878,    -0.892,     0.095,     1.109,     2.183,     3.278,     4.448,     5.721,     7.176,     8.792,    10.395,    12.015,    13.523,    14.874,    15.929,    16.701,    17.059,    17.155,    17.209,       NaN,       NaN,       NaN,       NaN,       NaN,       NaN,
     1.950,   -18.287,   -17.632,   -16.970,   -16.308,   -15.644,   -14.974,   -14.301,   -13.616,   -12.926,   -12.236,   -11.543,   -10.845,   -10.128,    -9.407,    -8.673,    -7.920,    -7.153,    -6.368,    -5.570,    -4.752,    -3.909,    -3.040,    -2.149,    -1.229,    -0.284,     0.676,     1.678,     2.705,     3.771,     4.859,     6.012,     7.355,     8.865,    10.672,    12.311,    13.727,    14.755,    15.393,    15.820,    16.015,    16.086,       NaN,       NaN,       NaN,       NaN,       NaN,       NaN,
     1.800,   -18.272,   -17.616,   -16.946,   -16.269,   -15.593,   -14.917,   -14.239,   -13.559,   -12.866,   -12.174,   -11.483,   -10.792,   -10.085,    -9.377,    -8.656,    -7.919,    -7.166,    -6.407,    -5.632,    -4.840,    -4.018,    -3.179,    -2.327,    -1.445,    -0.537,     0.378,     1.323,     2.285,     3.262,     4.269,     5.333,     6.469,     7.682,     9.180,    10.732,    12.309,    13.351,    13.997,    14.731,    15.367,    15.605,       NaN,       NaN,       NaN,       NaN,       NaN,       NaN,
     1.650,   -18.210,   -17.542,   -16.862,   -16.184,   -15.501,   -14.811,   -14.122,   -13.436,   -12.747,   -12.061,   -11.375,   -10.684,    -9.991,    -9.290,    -8.574,    -7.854,    -7.123,    -6.379,    -5.617,    -4.850,    -4.054,    -3.246,    -2.420,    -1.566,    -0.702,     0.170,     1.066,     1.967,     2.896,     3.848,     4.838,     5.885,     6.994,     8.200,     9.540,    11.063,    12.458,    13.256,    14.344,    15.263,    15.391,       NaN,       NaN,       NaN,       NaN,       NaN,       NaN,
     1.500,   -18.112,   -17.428,   -16.741,   -16.050,   -15.361,   -14.664,   -13.973,   -13.286,   -12.596,   -11.908,   -11.220,   -10.535,    -9.848,    -9.147,    -8.440,    -7.737,    -7.020,    -6.291,    -5.551,    -4.807,    -4.038,    -3.250,    -2.442,    -1.621,    -0.795,     0.042,     0.889,     1.750,     2.641,     3.536,     4.477,     5.452,     6.480,     7.560,     8.704,     9.954,    11.503,    12.833,    14.365,    15.474,    15.573,       NaN,       NaN,       NaN,       NaN,       NaN,       NaN,
     1.350,   -17.988,   -17.288,   -16.581,   -15.879,   -15.187,   -14.488,   -13.796,   -13.103,   -12.406,   -11.716,   -11.026,   -10.338,    -9.651,    -8.964,    -8.271,    -7.566,    -6.861,    -6.152,    -5.429,    -4.699,    -3.952,    -3.185,    -2.406,    -1.616,    -0.821,    -0.010,     0.804,     1.635,     2.472,     3.322,     4.213,     5.134,     6.094,     7.098,     8.161,     9.301,    10.533,    12.051,    13.763,    15.201,    16.003,       NaN,       NaN,       NaN,       NaN,       NaN,       NaN,
     1.200,   -17.830,   -17.121,   -16.410,   -15.697,   -14.989,   -14.288,   -13.590,   -12.888,   -12.196,   -11.500,   -10.809,   -10.122,    -9.431,    -8.748,    -8.061,    -7.364,    -6.671,    -5.974,    -5.261,    -4.548,    -3.829,    -3.090,    -2.335,    -1.561,    -0.784,    -0.004,     0.779,     1.575,     2.382,     3.203,     4.048,     4.915,     5.814,     6.760,     7.755,     8.810,     9.940,    11.190,    12.634,    14.340,    16.165,       NaN,       NaN,       NaN,       NaN,       NaN,       NaN,
     1.050,   -17.650,   -16.930,   -16.214,   -15.497,   -14.782,   -14.069,   -13.362,   -12.658,   -11.963,   -11.261,   -10.573,    -9.891,    -9.198,    -8.512,    -7.833,    -7.150,    -6.461,    -5.770,    -5.064,    -4.367,    -3.671,    -2.953,    -2.215,    -1.464,    -0.709,     0.041,     0.803,     1.572,     2.354,     3.138,     3.941,     4.764,     5.623,     6.525,     7.470,     8.461,     9.514,    10.643,    11.869,    13.271,    14.989,       NaN,       NaN,       NaN,       NaN,       NaN,       NaN,
     0.900,   -17.452,   -16.721,   -15.992,   -15.274,   -14.550,   -13.829,   -13.120,   -12.413,   -11.708,   -11.007,   -10.318,    -9.629,    -8.943,    -8.264,    -7.589,    -6.907,    -6.222,    -5.540,    -4.846,    -4.162,    -3.474,    -2.777,    -2.058,    -1.333,    -0.603,     0.129,     0.868,     1.604,     2.352,     3.106,     3.882,     4.679,     5.507,     6.366,     7.261,     8.207,     9.193,    10.244,    11.373,    12.600,    13.992,    15.738,       NaN,       NaN,       NaN,       NaN,       NaN,
     0.750,   -17.238,   -16.498,   -15.763,   -15.034,   -14.305,   -13.582,   -12.864,   -12.152,   -11.446,   -10.744,   -10.046,    -9.352,    -8.670,    -7.988,    -7.312,    -6.638,    -5.965,    -5.289,    -4.602,    -3.924,    -3.248,    -2.573,    -1.876,    -1.170,    -0.456,     0.256,     0.967,     1.672,     2.396,     3.131,     3.886,     4.658,     5.457,     6.279,     7.130,     8.031,     8.966,     9.958,    11.012,    12.151,    13.385,    14.807,    16.600,       NaN,       NaN,       NaN,       NaN,
     0.600,   -17.015,   -16.269,   -15.523,   -14.784,   -14.054,   -13.326,   -12.601,   -11.885,   -11.171,   -10.467,    -9.769,    -9.077,    -8.389,    -7.702,    -7.028,    -6.360,    -5.693,    -5.018,    -4.340,    -3.671,    -3.008,    -2.348,    -1.667,    -0.975,    -0.284,     0.405,     1.093,     1.788,     2.491,     3.208,     3.935,     4.680,     5.451,     6.246,     7.065,     7.926,     8.816,     9.757,    10.758,    11.827,    12.981,    14.252,    15.714,    17.547,       NaN,       NaN,       NaN,
     0.450,   -16.792,   -16.032,   -15.277,   -14.530,   -13.794,   -13.066,   -12.336,   -11.612,   -10.894,   -10.189,    -9.488,    -8.787,    -8.104,    -7.424,    -6.741,    -6.069,    -5.404,    -4.739,    -4.072,    -3.409,    -2.747,    -2.092,    -1.431,    -0.759,    -0.090,     0.586,     1.261,     1.941,     2.624,     3.319,     4.024,     4.746,     5.492,     6.264,     7.061,     7.888,     8.744,     9.639,    10.592,    11.603,    12.695,    13.874,    15.165,    16.688,    18.579,       NaN,       NaN,
     0.300,   -16.567,   -15.797,   -15.036,   -14.278,   -13.533,   -12.799,   -12.063,   -11.339,   -10.622,    -9.909,    -9.198,    -8.499,    -7.815,    -7.132,    -6.448,    -5.778,    -5.114,    -4.455,    -3.791,    -3.132,    -2.476,    -1.830,    -1.183,    -0.522,     0.133,     0.792,     1.451,     2.111,     2.770,     3.457,     4.153,     4.862,     5.591,     6.340,     7.111,     7.900,     8.724,     9.584,    10.497,    11.456,    12.488,    13.597,    14.797,    16.145,    17.767,       NaN,       NaN,
     0.150,   -16.331,   -15.561,   -14.793,   -14.030,   -13.274,   -12.527,   -11.790,   -11.063,   -10.342,    -9.629,    -8.918,    -8.213,    -7.517,    -6.832,    -6.152,    -5.479,    -4.811,    -4.153,    -3.494,    -2.844,    -2.197,    -1.554,    -0.909,    -0.267,     0.371,     1.012,     1.659,     2.305,     2.960,     3.641,     4.321,     5.015,     5.720,     6.441,     7.184,     7.948,     8.748,     9.587,    10.467,    11.380,    12.361,    13.410,    14.541,    15.796,    17.197,    18.907,       NaN,
     0.000,   -16.097,   -15.317,   -14.542,   -13.776,   -13.012,   -12.260,   -11.517,   -10.778,   -10.055,    -9.347,    -8.637,    -7.926,    -7.227,    -6.540,    -5.857,    -5.181,    -4.512,    -3.853,    -3.202,    -2.554,    -1.906,    -1.263,    -0.628,     0.000,     0.626,     1.259,     1.899,     2.540,     3.193,     3.854,     4.518,     5.194,     5.879,     6.581,     7.307,     8.054,     8.833,     9.648,    10.484,    11.361,    12.298,    13.303,    14.384,    15.560,    16.847,    18.273,    20.103,
    -0.150,   -15.856,   -15.066,   -14.284,   -13.509,   -12.742,   -11.988,   -11.235,   -10.494,    -9.770,    -9.050,    -8.332,    -7.626,    -6.926,    -6.235,    -5.554,    -4.882,    -4.219,    -3.558,    -2.900,    -2.245,    -1.602,    -0.969,    -0.347,     0.278,     0.900,     1.527,     2.158,     2.792,     3.430,     4.078,     4.731,     5.393,     6.071,     6.759,     7.468,     8.193,     8.948,     9.736,    10.544,    11.394,    12.293,    13.250,    14.277,    15.385,    16.602,    17.933,    19.465,
    -0.300,   -15.600,   -14.802,   -14.010,   -13.229,   -12.459,   -11.696,   -10.940,   -10.197,    -9.465,    -8.743,    -8.024,    -7.315,    -6.611,    -5.918,    -5.237,    -4.567,    -3.900,    -3.230,    -2.571,    -1.923,    -1.290,    -0.665,    -0.051,     0.565,     1.178,     1.790,     2.412,     3.041,     3.668,     4.307,     4.955,     5.607,     6.271,     6.947,     7.639,     8.341,     9.071,     9.834,    10.623,    11.451,    12.320,    13.240,    14.221,    15.275,    16.429,    17.673,    19.070,
    -0.450,   -15.326,   -14.522,   -13.723,   -12.933,   -12.153,   -11.386,   -10.629,    -9.877,    -9.138,    -8.413,    -7.688,    -6.971,    -6.269,    -5.578,    -4.899,    -4.225,    -3.556,    -2.892,    -2.237,    -1.595,    -0.964,    -0.345,     0.259,     0.853,     1.447,     2.045,     2.656,     3.272,     3.895,     4.524,     5.162,     5.802,     6.452,     7.118,     7.799,     8.489,     9.198,     9.936,    10.709,    11.514,    12.352,    13.235,    14.172,    15.181,    16.282,    17.462,    18.770,
    -0.600,   -15.050,   -14.240,   -13.433,   -12.635,   -11.849,   -11.075,   -10.310,    -9.553,    -8.812,    -8.078,    -7.350,    -6.635,    -5.931,    -5.234,    -4.551,    -3.881,    -3.213,    -2.554,    -1.903,    -1.262,    -0.635,    -0.027,     0.563,     1.140,     1.721,     2.310,     2.907,     3.511,     4.124,     4.736,     5.362,     5.993,     6.632,     7.289,     7.958,     8.639,     9.338,    10.055,    10.807,    11.589,    12.397,    13.249,    14.154,    15.129,    16.174,    17.303,    18.543,
    -0.750,   -14.762,   -13.941,   -13.126,   -12.327,   -11.534,   -10.753,    -9.986,    -9.225,    -8.474,    -7.735,    -7.012,    -6.293,    -5.588,    -4.896,    -4.215,    -3.545,    -2.874,    -2.208,    -1.561,    -0.927,    -0.314,     0.281,     0.858,     1.424,     1.993,     2.570,     3.154,     3.746,     4.347,     4.948,     5.567,     6.189,     6.814,     7.461,     8.122,     8.789,     9.467,    10.169,    10.907,    11.670,    12.461,    13.294,    14.168,    15.106,    16.104,    17.182,    18.363,
    -0.900,   -14.458,   -13.630,   -12.811,   -12.005,   -11.209,   -10.426,    -9.653,    -8.886,    -8.133,    -7.390,    -6.661,    -5.941,    -5.237,    -4.544,    -3.862,    -3.185,    -2.518,    -1.864,    -1.222,    -0.595,     0.005,     0.590,     1.154,     1.703,     2.258,     2.822,     3.400,     3.984,     4.574,     5.169,     5.775,     6.384,     6.997,     7.627,     8.276,     8.930,     9.596,    10.288,    11.012,    11.761,    12.541,    13.350,    14.199,    15.104,    16.069,    17.104,    18.235,
    -1.050,   -14.147,   -13.313,   -12.490,   -11.678,   -10.876,   -10.088,    -9.307,    -8.537,    -7.783,    -7.034,    -6.302,    -5.584,    -4.878,    -4.179,    -3.500,    -2.829,    -2.164,    -1.513,    -0.877,    -0.259,     0.332,     0.902,     1.455,     1.995,     2.539,     3.093,     3.654,     4.222,     4.801,     5.384,     5.971,     6.569,     7.180,     7.798,     8.435,     9.081,     9.741,    10.421,    11.125,    11.858,    12.614,    13.403,    14.229,    15.108,    16.050,    17.056,    18.142,
    -1.200,   -13.836,   -12.995,   -12.164,   -11.349,   -10.543,    -9.747,    -8.963,    -8.190,    -7.429,    -6.682,    -5.949,    -5.228,    -4.518,    -3.820,    -3.143,    -2.470,    -1.805,    -1.162,    -0.533,     0.068,     0.648,     1.209,     1.757,     2.287,     2.819,     3.357,     3.904,     4.455,     5.021,     5.597,     6.179,     6.765,     7.359,     7.969,     8.597,     9.232,     9.881,    10.551,    11.234,    11.949,    12.689,    13.463,    14.278,    15.134,    16.047,    17.020,    18.066,
    -1.350,   -13.521,   -12.674,   -11.839,   -11.017,   -10.207,    -9.408,    -8.618,    -7.840,    -7.079,    -6.334,    -5.596,    -4.869,    -4.158,    -3.464,    -2.784,    -2.113,    -1.454,    -0.819,    -0.201,     0.390,     0.960,     1.512,     2.051,     2.566,     3.085,     3.612,     4.156,     4.693,     5.243,     5.808,     6.384,     6.969,     7.552,     8.145,     8.754,     9.377,    10.014,    10.674,    11.350,    12.053,    12.778,    13.533,    14.335,    15.167,    16.053,    16.989,    18.009,
    -1.500,   -13.198,   -12.346,   -11.504,   -10.677,    -9.864,    -9.060,    -8.268,    -7.492,    -6.727,    -5.975,    -5.234,    -4.508,    -3.797,    -3.102,    -2.421,    -1.755,    -1.108,    -0.481,     0.124,     0.709,     1.268,     1.808,     2.335,     2.843,     3.351,     3.872,     4.406,     4.934,     5.468,     6.014,     6.574,     7.147,     7.721,     8.305,     8.902,     9.516,    10.144,    10.815,    11.490,    12.169,    12.881,    13.614,    14.385,    15.201,    16.060,    16.972,    17.965,
    -1.650,   -12.878,   -12.019,   -11.171,   -10.340,    -9.521,    -8.712,    -7.919,    -7.139,    -6.368,    -5.615,    -4.877,    -4.150,    -3.438,    -2.747,    -2.070,    -1.411,    -0.770,    -0.149,     0.444,     1.016,     1.564,     2.099,     2.619,     3.120,     3.620,     4.125,     4.643,     5.164,     5.685,     6.218,     6.770,     7.336,     7.894,     8.467,     9.055,     9.664,    10.285,    10.932,    11.597,    12.264,    12.963,    13.687,    14.438,    15.233,    16.073,    16.967,    17.945,
    -1.800,   -12.559,   -11.693,   -10.839,   -10.000,    -9.179,    -8.367,    -7.569,    -6.786,    -6.015,    -5.260,    -4.518,    -3.792,    -3.087,    -2.398,    -1.722,    -1.070,    -0.441,     0.166,     0.757,     1.317,     1.860,     2.391,     2.904,     3.396,     3.880,     4.372,     4.876,     5.387,     5.903,     6.429,     6.962,     7.513,     8.065,     8.629,     9.206,     9.800,    10.407,    11.031,    11.685,    12.349,    13.037,    13.757,    14.499,    15.280,    16.109,    16.974,    17.918,
    -1.950,   -12.229,   -11.364,   -10.507,    -9.665,    -8.839,    -8.022,    -7.221,    -6.436,    -5.663,    -4.906,    -4.163,    -3.441,    -2.738,    -2.050,    -1.384,    -0.744,    -0.124,     0.477,     1.063,     1.615,     2.154,     2.676,     3.181,     3.667,     4.140,     4.626,     5.117,     5.614,     6.117,     6.629,     7.151,     7.684,     8.225,     8.777,     9.344,     9.928,    10.529,    11.143,    11.780,    12.439,    13.117,    13.825,    14.561,    15.326,    16.139,    16.989,    17.900,
    -2.100,   -11.909,   -11.036,   -10.175,    -9.332,    -8.503,    -7.682,    -6.877,    -6.089,    -5.314,    -4.561,    -3.824,    -3.103,    -2.400,    -1.716,    -1.057,    -0.424,     0.188,     0.784,     1.360,     1.914,     2.441,     2.950,     3.447,     3.930,     4.397,     4.872,     5.349,     5.832,     6.322,     6.819,     7.332,     7.849,     8.386,     8.932,     9.495,    10.067,    10.654,    11.258,    11.881,    12.530,    13.194,    13.886,    14.608,    15.362,    16.163,    16.999,    17.891,
    -2.250,   -11.600,   -10.709,    -9.847,    -9.002,    -8.170,    -7.350,    -6.542,    -5.751,    -4.978,    -4.227,    -3.491,    -2.773,    -2.074,    -1.400,    -0.746,    -0.114,     0.495,     1.081,     1.644,     2.193,     2.714,     3.218,     3.707,     4.179,     4.639,     5.104,     5.572,     6.043,     6.527,     7.017,     7.517,     8.023,     8.550,     9.086,     9.634,    10.196,    10.771,    11.360,    11.971,    12.606,    13.266,    13.950,    14.660,    15.405,    16.193,    17.018,    17.893,
    -2.400,   -11.287,   -10.401,    -9.533,    -8.677,    -7.841,    -7.017,    -6.210,    -5.425,    -4.651,    -3.897,    -3.165,    -2.454,    -1.761,    -1.091,    -0.447,     0.178,     0.779,     1.360,     1.923,     2.464,     2.980,     3.476,     3.957,     4.416,     4.870,     5.331,     5.789,     6.250,     6.723,     7.201,     7.689,     8.186,     8.696,     9.223,     9.754,    10.304,    10.870,    11.452,    12.059,    12.682,    13.329,    14.004,    14.709,    15.445,    16.221,    17.038,    17.896,
    -2.550,   -10.977,   -10.089,    -9.218,    -8.363,    -7.521,    -6.695,    -5.888,    -5.104,    -4.330,    -3.581,    -2.856,    -2.148,    -1.460,    -0.797,    -0.156,     0.459,     1.054,     1.633,     2.192,     2.726,     3.233,     3.723,     4.198,     4.651,     5.093,     5.544,     5.994,     6.447,     6.906,     7.368,     7.845,     8.336,     8.837,     9.351,     9.876,    10.412,    10.969,    11.543,    12.137,    12.751,    13.391,    14.057,    14.749,    15.473,    16.234,    17.039,    17.881,
