Thorlabs Shack-Hartmann Wavefront Sensor

Model                  ,       WFS20-5C
Serial Number          ,       M00578372

Date MM-DD-YYYY        ,       07-16-2024
Time HH:MM:SS          ,       16:21:39


*** CAMERA ***
Camera Type            ,       Thorlabs WFS20
Camera SN              ,       742
Resolution X           ,       1440
Resolution Y           ,       1080
Exposure Time [ms]     ,       0.035
Master Gain            ,       1.000
Averages               ,       1
Average Type           ,       Normal


*** BEAM ***
Beam Center X [mm]     ,       1.121
Beam Center Y [mm]     ,      -0.908
Beam Diameter X [mm]   ,       6.412
Beam Diameter Y [mm]   ,       5.174


*** PUPIL ***
Circular               ,       1
Use Beam Centroid      ,       0
Use Beam Dia           ,       0
Wavefront Calc In Pupil,       0
Pupil Diameter X [mm]  ,       5.304
Pupil Diameter Y [mm]  ,       5.304
Pupil Center X [mm]    ,       0.000
Pupil Center Y [mm]    ,       0.000


*** ZERNIKE FIT ***
Zernike Orders Auto    ,       0
Zernike Orders         ,       4
Zernike Modes          ,       15
Unit                   ,       µm
Index  Order  Frequency  Coefficient
   1,     0,     0,       -8.605
   2,     1,    -1,        0.770
   3,     1,     1,        6.901
   4,     2,    -2,        0.941
   5,     2,     0,        0.838
   6,     2,     2,       -0.671
   7,     3,    -3,        0.074
   8,     3,    -1,       -0.239
   9,     3,     1,       -0.132
  10,     3,     3,       -0.162
  11,     4,    -4,        0.208
  12,     4,    -2,       -0.140
  13,     4,     0,       -0.076
  14,     4,     2,        0.083
  15,     4,     4,        0.209

Fit Error Mean [arcmin]  ,   2.486e-11
Fit Error StdDev [arcmin],   2.785e-03


*** RMS WAVEFRONT VARIATIONS ***
Unit                   ,       µm
Order  Variation
   0,      8.605
   1,      6.944
   2,      1.427
   3,      0.326
   4,      0.345


*** FOURIER NOTATION ***
Fourier Order          ,       2
Fourier M              ,      -0.825
Fourier J0             ,       0.467
Fourier J45            ,      -0.655


*** OPTOMETRIC NOTATION ***
Optometric Sphere [dpt],      -0.020
Optometric Cyl. [dpt]  ,      -1.610
Optometric Axis [deg]  ,     152.735

Radius of Curvature[mm],    -1212.103


*** WAVEFRONT ***
Reference              ,       Internal Reference
Unit                   ,       µm
Wavelength [nm]        ,        633.000
Type                   ,       Measured
Calculation Area       ,       entire area
PV                     ,      51.020
RMS                    ,      10.022
RMS weighted           ,       9.087
Spots X                ,       47
Spots Y                ,       35
y / x [mm],    -3.450,    -3.300,    -3.150,    -3.000,    -2.850,    -2.700,    -2.550,    -2.400,    -2.250,    -2.100,    -1.950,    -1.800,    -1.650,    -1.500,    -1.350,    -1.200,    -1.050,    -0.900,    -0.750,    -0.600,    -0.450,    -0.300,    -0.150,     0.000,     0.150,     0.300,     0.450,     0.600,     0.750,     0.900,     1.050,     1.200,     1.350,     1.500,     1.650,     1.800,     1.950,     2.100,     2.250,     2.400,     2.550,     2.700,     2.850,     3.000,     3.150,     3.300,     3.450,
     2.550,       NaN,       NaN,       NaN,       NaN,       NaN,       NaN,       NaN,       NaN,       NaN,       NaN,       NaN,       NaN,   -14.873,   -11.899,    -8.487,    -5.487,    -3.625,    -2.020,    -0.535,     0.809,     1.989,     3.021,     3.955,     4.678,     5.017,     5.369,     6.105,     6.640,     7.060,     7.644,     7.885,     8.296,     8.729,     9.246,     9.778,    10.349,    10.972,    11.619,    12.278,    12.965,    13.652,    14.365,    15.088,    15.833,    16.591,    17.383,    18.176,
     2.400,       NaN,       NaN,       NaN,       NaN,       NaN,       NaN,       NaN,   -26.679,   -24.986,   -23.115,   -19.761,   -15.806,   -11.707,    -9.486,    -7.022,    -4.564,    -2.786,    -1.374,    -0.146,     0.948,     1.843,     2.544,     3.138,     3.616,     3.905,     4.155,     4.644,     5.052,     5.466,     5.916,     6.449,     7.019,     7.594,     8.229,     8.846,     9.503,    10.162,    10.828,    11.504,    12.193,    12.889,    13.603,    14.324,    15.063,    15.821,    16.599,    17.389,
     2.250,       NaN,       NaN,       NaN,       NaN,       NaN,       NaN,       NaN,   -22.602,   -20.153,   -17.770,   -15.388,   -12.715,    -9.842,    -7.865,    -5.872,    -3.885,    -2.164,    -1.000,    -0.016,     0.794,     1.368,     1.775,     2.013,     2.252,     2.604,     2.972,     3.409,     3.948,     4.499,     5.074,     5.675,     6.288,     6.933,     7.588,     8.229,     8.914,     9.583,    10.272,    10.958,    11.655,    12.366,    13.090,    13.809,    14.538,    15.289,    16.047,    16.819,
     2.100,       NaN,       NaN,       NaN,       NaN,       NaN,       NaN,       NaN,   -17.847,   -15.738,   -13.820,   -12.099,   -10.507,    -8.926,    -7.341,    -5.684,    -3.850,    -1.971,    -1.103,    -0.400,     0.089,     0.314,     0.554,     0.723,     1.062,     1.571,     2.099,     2.679,     3.276,     3.881,     4.505,     5.132,     5.783,     6.450,     7.121,     7.795,     8.488,     9.177,     9.883,    10.569,    11.279,    12.002,    12.726,    13.442,    14.160,    14.905,    15.665,    16.417,
     1.950,       NaN,       NaN,       NaN,       NaN,       NaN,       NaN,       NaN,   -13.803,   -11.943,   -10.319,    -8.902,    -7.612,    -6.468,    -5.366,    -4.302,    -3.056,    -1.817,    -1.414,    -1.165,    -0.975,    -0.892,    -0.589,    -0.164,     0.364,     0.950,     1.546,     2.160,     2.785,     3.423,     4.092,     4.757,     5.425,     6.106,     6.797,     7.492,     8.186,     8.887,     9.598,    10.296,    11.011,    11.737,    12.461,    13.179,    13.902,    14.649,    15.400,    16.157,
     1.800,       NaN,       NaN,       NaN,       NaN,       NaN,       NaN,       NaN,    -9.837,    -8.337,    -7.101,    -5.952,    -4.960,    -4.135,    -3.432,    -2.972,    -2.612,    -2.464,    -2.371,    -2.320,    -2.061,    -1.691,    -1.220,    -0.707,    -0.128,     0.506,     1.138,     1.788,     2.445,     3.113,     3.807,     4.498,     5.186,     5.885,     6.590,     7.295,     8.003,     8.717,     9.424,    10.135,    10.856,    11.586,    12.310,    13.025,    13.757,    14.504,    15.244,    16.001,
     1.650,       NaN,       NaN,       NaN,       NaN,       NaN,       NaN,       NaN,    -8.011,    -6.753,    -5.856,    -5.063,    -4.400,    -3.922,    -3.563,    -3.513,    -3.579,    -3.616,    -3.456,    -3.121,    -2.699,    -2.231,    -1.692,    -1.109,    -0.475,     0.179,     0.849,     1.533,     2.219,     2.915,     3.620,     4.327,     5.031,     5.752,     6.470,     7.184,     7.906,     8.625,     9.340,    10.061,    10.786,    11.512,    12.237,    12.961,    13.702,    14.438,    15.184,    15.938,
     1.500,       NaN,       NaN,       NaN,       NaN,       NaN,       NaN,       NaN,    -6.305,    -5.517,    -5.172,    -4.779,    -4.402,    -4.350,    -4.466,    -4.653,    -4.696,    -4.429,    -4.068,    -3.639,    -3.149,    -2.614,    -2.024,    -1.384,    -0.721,    -0.040,     0.665,     1.363,     2.075,     2.797,     3.512,     4.236,     4.957,     5.685,     6.412,     7.138,     7.871,     8.597,     9.326,    10.055,    10.787,    11.515,    12.244,    12.970,    13.714,    14.448,    15.195,    15.947,
     1.350,       NaN,       NaN,       NaN,       NaN,       NaN,       NaN,       NaN,    -6.027,    -5.581,    -5.626,    -5.567,    -5.354,    -5.546,    -5.671,    -5.552,    -5.300,    -4.940,    -4.513,    -4.008,    -3.462,    -2.875,    -2.241,    -1.574,    -0.877,    -0.166,     0.554,     1.274,     2.015,     2.755,     3.479,     4.213,     4.948,     5.684,     6.426,     7.163,     7.905,     8.638,     9.377,    10.114,    10.851,    11.582,    12.318,    13.052,    13.794,    14.533,    15.278,    16.023,
     1.200,       NaN,       NaN,       NaN,       NaN,       NaN,       NaN,       NaN,    -6.618,    -5.954,    -6.071,    -6.388,    -6.503,    -6.611,    -6.424,    -6.127,    -5.758,    -5.317,    -4.815,    -4.253,    -3.666,    -3.046,    -2.381,    -1.687,    -0.956,    -0.220,     0.516,     1.259,     2.018,     2.766,     3.517,     4.262,     5.003,     5.754,     6.505,     7.247,     7.992,     8.731,     9.481,    10.224,    10.964,    11.705,    12.449,    13.190,    13.931,    14.672,    15.415,    16.156,
     1.050,       NaN,       NaN,       NaN,       NaN,       NaN,       NaN,       NaN,    -7.146,    -6.696,    -7.076,    -7.382,    -7.440,    -7.232,    -6.924,    -6.540,    -6.091,    -5.594,    -5.024,    -4.422,    -3.794,    -3.134,    -2.441,    -1.725,    -0.981,    -0.221,     0.535,     1.295,     2.062,     2.832,     3.589,     4.342,     5.102,     5.864,     6.618,     7.373,     8.128,     8.879,     9.637,    10.390,    11.137,    11.882,    12.630,    13.376,    14.120,    14.865,    15.607,    16.352,
     0.900,       NaN,       NaN,       NaN,       NaN,       NaN,       NaN,       NaN,    -8.067,    -7.986,    -8.243,    -8.228,    -8.033,    -7.704,    -7.301,    -6.839,    -6.326,    -5.773,    -5.160,    -4.518,    -3.854,    -3.164,    -2.448,    -1.712,    -0.948,    -0.169,     0.606,     1.376,     2.149,     2.927,     3.689,     4.468,     5.240,     6.012,     6.780,     7.547,     8.313,     9.075,     9.836,    10.594,    11.349,    12.098,    12.848,    13.599,    14.346,    15.093,    15.836,    16.581,
     0.750,       NaN,       NaN,       NaN,       NaN,       NaN,       NaN,       NaN,    -8.799,    -9.043,    -8.990,    -8.764,    -8.453,    -8.041,    -7.576,    -7.050,    -6.475,    -5.874,    -5.226,    -4.548,    -3.857,    -3.142,    -2.406,    -1.644,    -0.863,    -0.076,     0.706,     1.492,     2.275,     3.065,     3.850,     4.638,     5.419,     6.199,     6.977,     7.752,     8.526,     9.296,    10.061,    10.827,    11.594,    12.348,    13.102,    13.855,    14.608,    15.360,    16.107,    16.851,
     0.600,       NaN,       NaN,       NaN,       NaN,       NaN,       NaN,    -9.539,    -9.812,    -9.735,    -9.501,    -9.174,    -8.776,    -8.295,    -7.768,    -7.191,    -6.577,    -5.935,    -5.250,    -4.545,    -3.823,    -3.078,    -2.317,    -1.539,    -0.749,     0.054,     0.852,     1.649,     2.448,     3.243,     4.034,     4.829,     5.624,     6.418,     7.212,     7.998,     8.782,     9.561,    10.332,    11.108,    11.879,    12.642,    13.406,    14.165,    14.921,    15.675,    16.425,    17.168,
     0.450,       NaN,       NaN,       NaN,       NaN,       NaN,   -10.228,   -10.523,   -10.467,   -10.234,    -9.895,    -9.487,    -9.015,    -8.482,    -7.905,    -7.280,    -6.629,    -5.948,    -5.238,    -4.503,    -3.744,    -2.975,    -2.202,    -1.410,    -0.602,     0.209,     1.025,     1.827,     2.640,     3.448,     4.257,     5.069,     5.879,     6.682,     7.485,     8.280,     9.072,     9.861,    10.644,    11.425,    12.201,    12.971,    13.736,    14.500,    15.261,    16.014,    16.764,    17.508,
     0.300,       NaN,       NaN,       NaN,       NaN,   -10.890,   -11.218,   -11.178,   -10.960,   -10.643,   -10.225,    -9.741,    -9.209,    -8.625,    -7.999,    -7.332,    -6.639,    -5.920,    -5.181,    -4.418,    -3.641,    -2.855,    -2.059,    -1.248,    -0.421,     0.395,     1.222,     2.042,     2.866,     3.686,     4.510,     5.335,     6.151,     6.962,     7.773,     8.584,     9.385,    10.183,    10.976,    11.763,    12.545,    13.320,    14.089,    14.858,    15.623,    16.381,    17.134,    17.880,
     0.150,       NaN,       NaN,       NaN,   -11.446,   -11.857,   -11.874,   -11.677,   -11.362,   -10.963,   -10.480,    -9.940,    -9.349,    -8.714,    -8.045,    -7.342,    -6.613,    -5.866,    -5.101,    -4.310,    -3.511,    -2.704,    -1.887,    -1.063,    -0.221,     0.611,     1.449,     2.285,     3.113,     3.946,     4.785,     5.620,     6.449,     7.276,     8.100,     8.922,     9.733,    10.538,    11.339,    12.132,    12.919,    13.701,    14.478,    15.253,    16.024,    16.783,    17.533,    18.283,
     0.000,       NaN,       NaN,       NaN,   -12.433,   -12.532,   -12.367,   -12.076,   -11.688,   -11.214,   -10.679,   -10.088,    -9.444,    -8.766,    -8.062,    -7.324,    -6.565,    -5.788,    -4.993,    -4.183,    -3.366,    -2.537,    -1.697,    -0.850,     0.000,     0.848,     1.697,     2.543,     3.387,     4.240,     5.095,     5.939,     6.780,     7.621,     8.454,     9.279,    10.095,    10.904,    11.711,    12.512,    13.308,    14.097,    14.878,    15.658,    16.433,    17.194,    17.951,    18.705,
    -0.150,       NaN,       NaN,       NaN,   -13.163,   -13.047,   -12.776,   -12.403,   -11.940,   -11.406,   -10.819,   -10.178,    -9.500,    -8.785,    -8.036,    -7.273,    -6.498,    -5.689,    -4.866,    -4.034,    -3.184,    -2.328,    -1.474,    -0.616,     0.239,     1.099,     1.965,     2.830,     3.689,     4.548,     5.408,     6.262,     7.111,     7.959,     8.802,     9.638,    10.465,    11.285,    12.099,    12.907,    13.708,    14.500,    15.284,    16.063,    16.839,    17.607,    18.370,    19.126,
    -0.300,       NaN,       NaN,       NaN,   -13.690,   -13.449,   -13.091,   -12.648,   -12.126,   -11.542,   -10.908,   -10.228,    -9.512,    -8.760,    -7.985,    -7.189,    -6.382,    -5.552,    -4.699,    -3.836,    -2.966,    -2.101,    -1.237,    -0.370,     0.500,     1.367,     2.235,     3.109,     3.984,     4.850,     5.720,     6.590,     7.455,     8.309,     9.163,    10.007,    10.844,    11.672,    12.491,    13.304,    14.114,    14.911,    15.702,    16.483,    17.260,    18.029,    18.793,    19.549,
    -0.450,       NaN,       NaN,       NaN,   -14.079,   -13.744,   -13.318,   -12.816,   -12.241,   -11.611,   -10.933,   -10.212,    -9.465,    -8.686,    -7.883,    -7.064,    -6.227,    -5.367,    -4.493,    -3.617,    -2.734,    -1.853,    -0.975,    -0.099,     0.766,     1.630,     2.502,     3.386,     4.272,     5.149,     6.026,     6.907,     7.780,     8.642,     9.498,    10.349,    11.196,    12.033,    12.857,    13.675,    14.488,    15.291,    16.087,    16.875,    17.656,    18.426,    19.195,    19.955,
    -0.600,       NaN,       NaN,       NaN,   -14.392,   -13.976,   -13.493,   -12.937,   -12.313,   -11.642,   -10.927,   -10.175,    -9.395,    -8.583,    -7.754,    -6.908,    -6.047,    -5.169,    -4.282,    -3.389,    -2.491,    -1.596,    -0.709,     0.166,     1.032,     1.904,     2.781,     3.665,     4.555,     5.445,     6.325,     7.211,     8.090,     8.963,     9.827,    10.681,    11.534,    12.381,    13.212,    14.039,    14.857,    15.665,    16.464,    17.254,    18.040,    18.812,    19.579,    20.342,
    -0.750,       NaN,       NaN,       NaN,   -14.625,   -14.155,   -13.617,   -13.011,   -12.349,   -11.636,   -10.885,   -10.105,    -9.290,    -8.458,    -7.612,    -6.743,    -5.862,    -4.963,    -4.054,    -3.145,    -2.235,    -1.336,    -0.441,     0.438,     1.305,     2.176,     3.058,     3.945,     4.837,     5.736,     6.624,     7.518,     8.409,     9.280,    10.152,    11.016,    11.876,    12.726,    13.564,    14.400,    15.225,    16.039,    16.843,    17.638,    18.426,    19.201,    19.968,    20.730,
    -0.900,       NaN,       NaN,       NaN,   -14.799,   -14.283,   -13.693,   -13.040,   -12.336,   -11.593,   -10.813,   -10.001,    -9.164,    -8.304,    -7.435,    -6.549,    -5.648,    -4.733,    -3.815,    -2.893,    -1.968,    -1.065,    -0.173,     0.706,     1.578,     2.452,     3.341,     4.234,     5.125,     6.025,     6.924,     7.818,     8.709,     9.584,    10.460,    11.330,    12.194,    13.046,    13.892,    14.734,    15.565,    16.388,    17.197,    18.001,    18.795,    19.576,    20.348,    21.112,
    -1.050,       NaN,       NaN,       NaN,   -14.927,   -14.354,   -13.719,   -13.028,   -12.289,   -11.512,   -10.705,    -9.871,    -9.013,    -8.136,    -7.243,    -6.333,    -5.417,    -4.486,    -3.554,    -2.621,    -1.692,    -0.789,     0.101,     0.983,     1.861,     2.739,     3.628,     4.516,     5.409,     6.309,     7.215,     8.110,     9.003,     9.891,    10.768,    11.646,    12.515,    13.373,    14.223,    15.066,    15.901,    16.730,    17.543,    18.348,    19.142,    19.930,    20.705,    21.469,
    -1.200,       NaN,       NaN,       NaN,   -15.009,   -14.390,   -13.714,   -12.986,   -12.215,   -11.412,   -10.581,    -9.723,    -8.845,    -7.947,    -7.034,    -6.109,    -5.178,    -4.234,    -3.293,    -2.354,    -1.427,    -0.516,     0.381,     1.269,     2.146,     3.021,     3.910,     4.805,     5.701,     6.600,     7.504,     8.405,     9.302,    10.188,    11.073,    11.959,    12.832,    13.693,    14.551,    15.397,    16.236,    17.070,    17.888,    18.694,    19.492,    20.283,    21.061,    21.831,
    -1.350,       NaN,       NaN,       NaN,   -15.053,   -14.394,   -13.681,   -12.924,   -12.121,   -11.294,   -10.439,    -9.562,    -8.659,    -7.739,    -6.810,    -5.870,    -4.928,    -3.975,    -3.028,    -2.082,    -1.157,    -0.247,     0.653,     1.545,     2.425,     3.305,     4.197,     5.093,     5.987,     6.885,     7.783,     8.689,     9.596,    10.483,    11.369,    12.252,    13.127,    13.992,    14.853,    15.705,    16.552,    17.387,    18.205,    19.018,    19.823,    20.618,    21.405,    22.183,
    -1.500,       NaN,       NaN,       NaN,   -15.053,   -14.359,   -13.613,   -12.832,   -12.005,   -11.154,   -10.280,    -9.377,    -8.456,    -7.521,    -6.576,    -5.624,    -4.671,    -3.706,    -2.752,    -1.813,    -0.889,     0.021,     0.926,     1.821,     2.704,     3.585,     4.476,     5.370,     6.262,     7.161,     8.061,     8.968,     9.875,    10.771,    11.661,    12.545,    13.422,    14.292,    15.179,    16.042,    16.874,    17.705,    18.522,    19.333,    20.136,    20.931,    21.721,    22.500,
    -1.650,       NaN,       NaN,       NaN,   -15.026,   -14.302,   -13.524,   -12.718,   -11.870,   -11.002,   -10.104,    -9.183,    -8.243,    -7.292,    -6.336,    -5.374,    -4.410,    -3.441,    -2.489,    -1.555,    -0.624,     0.297,     1.206,     2.102,     2.987,     3.867,     4.756,     5.653,     6.549,     7.446,     8.344,     9.249,    10.158,    11.051,    11.940,    12.824,    13.707,    14.584,    15.465,    16.330,    17.169,    18.007,    18.831,    19.647,    20.449,    21.244,    22.031,    22.815,
    -1.800,       NaN,       NaN,       NaN,   -14.966,   -14.219,   -13.416,   -12.584,   -11.720,   -10.827,    -9.908,    -8.973,    -8.017,    -7.057,    -6.089,    -5.116,    -4.147,    -3.183,    -2.231,    -1.286,    -0.352,     0.570,     1.482,     2.383,     3.273,     4.155,     5.039,     5.928,     6.821,     7.717,     8.613,     9.506,    10.412,    11.310,    12.203,    13.089,    13.973,    14.850,    15.722,    16.592,    17.441,    18.283,    19.113,    19.932,    20.740,    21.543,    22.329,    23.116,
    -1.950,       NaN,       NaN,       NaN,   -14.888,   -14.112,   -13.288,   -12.436,   -11.549,   -10.633,    -9.700,    -8.749,    -7.785,    -6.814,    -5.833,    -4.859,    -3.889,    -2.924,    -1.971,    -1.023,    -0.088,     0.840,     1.758,     2.664,     3.554,     4.431,     5.314,     6.199,     7.087,     7.984,     8.880,     9.774,    10.672,    11.569,    12.461,    13.353,    14.239,    15.116,    15.987,    16.852,    17.707,    18.550,    19.379,    20.202,    21.014,    21.815,    22.603,    23.382,
    -2.100,       NaN,       NaN,       NaN,   -14.790,   -13.989,   -13.147,   -12.274,   -11.369,   -10.437,    -9.484,    -8.526,    -7.550,    -6.569,    -5.582,    -4.605,    -3.630,    -2.665,    -1.708,    -0.756,     0.190,     1.119,     2.035,     2.937,     3.826,     4.706,     5.594,     6.475,     7.362,     8.253,     9.145,    10.038,    10.928,    11.822,    12.710,    13.607,    14.492,    15.367,    16.238,    17.101,    17.961,    18.807,    19.642,    20.468,    21.281,    22.082,    22.870,    23.649,
    -2.250,       NaN,       NaN,       NaN,   -14.681,   -13.858,   -12.999,   -12.100,   -11.178,   -10.229,    -9.269,    -8.299,    -7.316,    -6.329,    -5.340,    -4.357,    -3.383,    -2.417,    -1.451,    -0.492,     0.457,     1.382,     2.298,     3.201,     4.093,     4.976,     5.859,     6.736,     7.615,     8.502,     9.393,    10.283,    11.170,    12.064,    12.949,    13.841,    14.723,    15.595,    16.460,    17.326,    18.187,    19.034,    19.873,    20.705,    21.524,    22.330,    23.124,    23.913,
    -2.400,       NaN,       NaN,       NaN,   -14.555,   -13.711,   -12.834,   -11.920,   -10.985,   -10.023,    -9.049,    -8.067,    -7.080,    -6.087,    -5.099,    -4.119,    -3.141,    -2.166,    -1.200,    -0.240,     0.708,     1.635,     2.555,     3.462,     4.346,     5.225,     6.103,     6.986,     7.861,     8.743,     9.633,    10.524,    11.414,    12.301,    13.187,    14.070,    14.951,    15.822,    16.689,    17.551,    18.406,    19.250,    20.086,    20.916,    21.740,    22.548,    23.346,    24.138,
    -2.550,       NaN,       NaN,       NaN,   -14.416,   -13.549,   -12.655,   -11.728,   -10.782,    -9.810,    -8.829,    -7.841,    -6.852,    -5.857,    -4.866,    -3.878,    -2.893,    -1.919,    -0.951,     0.009,     0.957,     1.887,     2.809,     3.713,     4.593,     5.468,     6.353,     7.235,     8.108,     8.986,     9.867,    10.752,    11.641,    12.521,    13.405,    14.288,    15.162,    16.027,    16.899,    17.758,    18.614,    19.460,    20.297,    21.124,    21.947,    22.755,    23.552,    24.342,
